Data from E4__Relative__8__00083.txt Node

Date: Tue Jan 30 17:58:07 CET 2024
User: diatiterra
Spectrometer: HDX00911
Trigger mode: 0
Integration Time (sec): 6,000000E-3
Scans to average: 3
Nonlinearity correction enabled: true
Boxcar width: 0
Storing dark spectrum: false
XAxis mode: Wavelengths
Number of Pixels in Spectrum: 2068
>>>>>Begin Spectral Data<<<<<
194,468	65,53
195,025	42,08
195,581	45,82
196,138	37,24
196,694	35,48
197,251	21,62
197,807	25,21
198,363	22,01
198,919	21,96
199,474	26,66
200,03	22,43
200,586	22,62
201,141	19,02
201,696	22,9
202,251	20,57
202,806	23,21
203,361	21,35
203,916	21,28
204,471	25,15
205,025	23,27
205,58	25,05
206,134	22,36
206,688	20,68
207,242	18,07
207,796	24,39
208,35	23,84
208,904	23,56
209,457	25,04
210,011	27,21
210,564	18,02
211,117	25,61
211,67	27,41
212,223	23,17
212,776	22,69
213,329	25,54
213,881	20,33
214,434	21,91
214,986	23,98
215,538	25,81
216,09	20,69
216,642	23,25
217,194	22,22
217,746	22,17
218,297	19,32
218,849	24,46
219,4	23,25
219,951	24,79
220,502	25,36
221,053	18,22
221,604	22,15
222,155	27,92
222,705	22,45
223,256	21,18
223,806	26,6
224,356	23,64
224,906	22,29
225,456	24,6
226,006	23,78
226,556	21,87
227,106	24,36
227,655	20,99
228,204	23,9
228,754	23,85
229,303	27,41
229,852	24,35
230,401	23,75
230,949	25,2
231,498	26,24
232,047	18,03
232,595	25,48
233,143	23,3
233,691	23,65
234,239	25,83
234,787	21,47
235,335	22,45
235,883	21,02
236,43	22,36
236,978	22,56
237,525	23,82
238,072	19,87
238,619	21,09
239,166	18,41
239,713	21,09
240,26	21,84
240,806	22,65
241,353	19,88
241,899	28,32
242,445	21,98
242,991	19,09
243,537	23,47
244,083	21,9
244,629	26,46
245,174	21,09
245,72	21,75
246,265	21,63
246,81	23,4
247,355	18,79
247,9	24,11
248,445	22,2
248,99	20,87
249,534	19,2
250,079	24,01
250,623	20,64
251,168	21,9
251,712	16,77
252,256	20,04
252,8	22,49
253,343	22,31
253,887	20,75
254,43	25
254,974	23,89
255,517	20,14
256,06	23,36
256,603	20,89
257,146	26,36
257,689	21,74
258,232	23,16
258,774	21,46
259,317	24,21
259,859	20,51
260,401	26,85
260,943	25,85
261,485	20,04
262,027	21,33
262,569	25,45
263,11	23,82
263,652	23,56
264,193	21,02
264,734	20,68
265,275	22,07
265,816	21,04
266,357	22,5
266,898	18,83
267,438	18,61
267,979	28,35
268,519	23,13
269,059	24,07
269,6	24,22
270,14	23,92
270,68	21,66
271,219	19,14
271,759	23,03
272,298	21,16
272,838	20,26
273,377	21,15
273,916	19,11
274,455	20,83
274,994	24,51
275,533	17,55
276,072	24,34
276,61	21,62
277,149	18,68
277,687	21,62
278,225	22,5
278,763	22,25
279,301	19,53
279,839	17,5
280,377	23,21
280,914	21,4
281,452	24,66
281,989	27
282,526	22,2
283,064	26,24
283,601	18,36
284,137	24,89
284,674	23,84
285,211	25,34
285,747	21,41
286,284	20,55
286,82	19,78
287,356	22,13
287,892	20,86
288,428	19,16
288,964	22,4
289,5	24,46
290,035	22,65
290,571	24,04
291,106	22,44
291,641	21,72
292,176	24,11
292,711	22,46
293,246	22,76
293,781	23,27
294,315	23,63
294,85	23,28
295,384	20,43
295,918	19,62
296,453	18,82
296,987	22,05
297,52	21,63
298,054	20,39
298,588	19,96
299,121	20,59
299,655	19,96
300,188	19,65
300,721	12,99
301,254	22,54
301,787	22,24
302,32	24
302,853	19,7
303,385	21,11
303,918	20,58
304,45	16,41
304,982	22,5
305,514	24,94
306,046	17,89
306,578	19,61
307,11	21,85
307,641	21,5
308,173	18,4
308,704	20,1
309,236	21,35
309,767	21,7
310,298	18,87
310,829	21,53
311,359	25,72
311,89	22,7
312,421	23,11
312,951	21,36
313,481	25,46
314,012	22,53
314,542	20,13
315,072	23,03
315,601	17,44
316,131	25,56
316,661	22,32
317,19	22,01
317,72	22,45
318,249	23,24
318,778	23,06
319,307	19,51
319,836	22,6
320,365	19,39
320,893	19,78
321,422	18,48
321,95	19,11
322,479	24,89
323,007	22,86
323,535	18,41
324,063	20,76
324,591	21,82
325,118	18,8
325,646	19,69
326,173	21,22
326,701	22,88
327,228	21,11
327,755	24,16
328,282	18,37
328,809	21,71
329,336	21,49
329,862	20,22
330,389	15,9
330,915	24,17
331,441	20,08
331,968	21,53
332,494	23,63
333,02	22,58
333,545	23,11
334,071	19,78
334,597	22,75
335,122	23,85
335,648	20,83
336,173	25,41
336,698	20,53
337,223	20,08
337,748	23,34
338,272	20,64
338,797	23,74
339,322	20,48
339,846	24,43
340,37	23,32
340,894	20,51
341,419	23,8
341,942	20,11
342,466	20,39
342,99	24,7
343,514	17,79
344,037	19,32
344,56	22,77
345,084	19,57
345,607	23,43
346,13	20,66
346,653	18,14
347,175	19
347,698	25,04
348,221	16,07
348,743	20,17
349,265	16,75
349,787	19,24
350,309	19,99
350,831	19,99
351,353	16,19
351,875	17,65
352,397	17,32
352,918	19,44
353,439	19,02
353,961	17,88
354,482	16,68
355,003	17,3
355,524	14,83
356,044	13,45
356,565	15,3
357,086	17,09
357,606	15,67
358,126	15,12
358,646	14,64
359,167	17,09
359,687	16,98
360,206	13,37
360,726	15,12
361,246	12,99
361,765	16,51
362,285	14,62
362,804	15,21
363,323	14,92
363,842	14,21
364,361	15,39
364,88	15,47
365,398	15,4
365,917	15,54
366,435	12,9
366,954	13,02
367,472	13,45
367,99	11,17
368,508	9,75
369,026	10,02
369,544	13,48
370,061	13,55
370,579	13,26
371,096	12,88
371,613	14,08
372,131	12,83
372,648	11,34
373,165	10,48
373,681	11,81
374,198	11,51
374,715	10,45
375,231	13,52
375,747	11,4
376,264	11,28
376,78	11,82
377,296	10,23
377,812	11,9
378,327	10,61
378,843	10,72
379,359	9,72
379,874	10,95
380,389	8,35
380,905	8,79
381,42	9,24
381,935	10,9
382,449	7,53
382,964	7,56
383,479	9,2
383,993	9,87
384,508	8,18
385,022	8,26
385,536	8,53
386,05	7,69
386,564	8,29
387,078	7,51
387,592	6,93
388,105	7,79
388,619	6,76
389,132	6,39
389,645	6,49
390,158	6,28
390,671	5,91
391,184	5,85
391,697	6,47
392,21	6,81
392,722	6,37
393,235	5,86
393,747	6,05
394,259	5,56
394,771	6,96
395,283	5,22
395,795	5,78
396,307	5,84
396,818	5,76
397,33	6,56
397,841	5,2
398,353	5,12
398,864	4,7
399,375	4,57
399,886	4,9
400,397	4,34
400,907	3,5
401,418	4,82
401,928	4,67
402,439	4,55
402,949	4,05
403,459	3,19
403,969	3,73
404,479	3,46
404,989	3,32
405,498	3,56
406,008	3,18
406,517	2,89
407,027	3,36
407,536	2,57
408,045	2,67
408,554	3,17
409,063	2,5
409,572	1,7
410,08	2,42
410,589	2,73
411,097	2,31
411,606	2,43
412,114	1,98
412,622	2,28
413,13	2,07
413,638	2,13
414,145	1,9
414,653	2,21
415,16	1,77
415,668	1,78
416,175	1,86
416,682	1,44
417,189	1,68
417,696	1,59
418,203	1,58
418,71	1,62
419,216	1,53
419,723	1,3
420,229	1,17
420,735	1,4
421,242	1,55
421,748	1,36
422,254	1,49
422,759	1,32
423,265	1,31
423,771	1,31
424,276	1,25
424,781	1,12
425,287	1,11
425,792	1,13
426,297	1,14
426,802	0,99
427,306	1,14
427,811	1
428,316	1,16
428,82	1,13
429,324	1,01
429,829	0,83
430,333	1,04
430,837	1,11
431,34	0,9
431,844	1,01
432,348	0,94
432,851	0,79
433,355	0,98
433,858	0,82
434,361	0,95
434,864	0,76
435,367	0,84
435,87	1,02
436,373	0,97
436,876	0,86
437,378	0,78
437,88	0,65
438,383	0,73
438,885	0,88
439,387	0,96
439,889	0,84
440,391	0,79
440,892	0,7
441,394	0,7
441,896	0,75
442,397	0,8
442,898	0,7
443,399	0,75
443,9	0,79
444,401	0,71
444,902	0,68
445,403	0,57
445,903	0,69
446,404	0,56
446,904	0,73
447,405	0,6
447,905	0,63
448,405	0,85
448,905	0,69
449,404	0,76
449,904	0,61
450,404	0,63
450,903	0,7
451,403	0,67
451,902	0,66
452,401	0,68
452,9	0,58
453,399	0,56
453,898	0,66
454,396	0,6
454,895	0,58
455,393	0,53
455,892	0,59
456,39	0,61
456,888	0,6
457,386	0,63
457,884	0,54
458,382	0,63
458,879	0,49
459,377	0,6
459,874	0,59
460,372	0,59
460,869	0,6
461,366	0,56
461,863	0,54
462,36	0,58
462,857	0,68
463,353	0,45
463,85	0,59
464,346	0,35
464,843	0,48
465,339	0,59
465,835	0,54
466,331	0,55
466,827	0,51
467,323	0,47
467,818	0,49
468,314	0,44
468,809	0,56
469,305	0,47
469,8	0,48
470,295	0,54
470,79	0,48
471,285	0,45
471,78	0,5
472,274	0,6
472,769	0,44
473,263	0,4
473,758	0,38
474,252	0,43
474,746	0,43
475,24	0,32
475,734	0,47
476,228	0,44
476,721	0,45
477,215	0,47
477,708	0,53
478,202	0,47
478,695	0,45
479,188	0,43
479,681	0,43
480,174	0,39
480,667	0,43
481,159	0,48
481,652	0,41
482,144	0,45
482,637	0,44
483,129	0,39
483,621	0,38
484,113	0,48
484,605	0,47
485,097	0,52
485,588	0,38
486,08	0,41
486,571	0,45
487,063	0,43
487,554	0,48
488,045	0,4
488,536	0,51
489,027	0,41
489,518	0,4
490,008	0,4
490,499	0,36
490,989	0,36
491,48	0,48
491,97	0,43
492,46	0,43
492,95	0,44
493,44	0,38
493,93	0,47
494,419	0,5
494,909	0,39
495,398	0,35
495,888	0,41
496,377	0,42
496,866	0,38
497,355	0,32
497,844	0,36
498,333	0,39
498,821	0,46
499,31	0,37
499,798	0,35
500,287	0,38
500,775	0,38
501,263	0,41
501,751	0,41
502,239	0,41
502,727	0,39
503,215	0,3
503,702	0,32
504,19	0,34
504,677	0,33
505,164	0,38
505,651	0,39
506,139	0,34
506,625	0,35
507,112	0,39
507,599	0,35
508,086	0,38
508,572	0,37
509,058	0,36
509,545	0,38
510,031	0,36
510,517	0,31
511,003	0,36
511,489	0,41
511,974	0,35
512,46	0,36
512,946	0,37
513,431	0,34
513,916	0,35
514,401	0,32
514,887	0,35
515,371	0,35
515,856	0,37
516,341	0,33
516,826	0,3
517,31	0,3
517,795	0,35
518,279	0,34
518,763	0,32
519,247	0,28
519,731	0,28
520,215	0,34
520,699	0,36
521,182	0,35
521,666	0,33
522,149	0,31
522,633	0,37
523,116	0,33
523,599	0,36
524,082	0,36
524,565	0,35
525,048	0,32
525,53	0,31
526,013	0,32
526,495	0,3
526,978	0,31
527,46	0,31
527,942	0,3
528,424	0,28
528,906	0,34
529,388	0,32
529,87	0,29
530,351	0,32
530,833	0,26
531,314	0,32
531,795	0,29
532,277	0,33
532,758	0,34
533,238	0,29
533,719	0,34
534,2	0,32
534,681	0,3
535,161	0,35
535,642	0,3
536,122	0,37
536,602	0,25
537,082	0,26
537,562	0,3
538,042	0,31
538,522	0,28
539,001	0,35
539,481	0,37
539,96	0,35
540,44	0,39
540,919	0,43
541,398	0,43
541,877	0,54
542,356	0,46
542,835	0,45
543,313	0,48
543,792	0,45
544,27	0,5
544,749	0,49
545,227	0,52
545,705	0,59
546,183	0,64
546,661	0,58
547,139	0,46
547,616	0,38
548,094	0,36
548,571	0,38
549,049	0,37
549,526	0,33
550,003	0,35
550,48	0,28
550,957	0,35
551,434	0,28
551,911	0,31
552,387	0,32
552,864	0,31
553,34	0,29
553,817	0,27
554,293	0,26
554,769	0,31
555,245	0,26
555,721	0,25
556,197	0,24
556,672	0,3
557,148	0,26
557,623	0,28
558,099	0,29
558,574	0,23
559,049	0,28
559,524	0,26
559,999	0,24
560,474	0,27
560,948	0,26
561,423	0,25
561,897	0,21
562,372	0,21
562,846	0,24
563,32	0,24
563,794	0,26
564,268	0,25
564,742	0,24
565,216	0,24
565,69	0,2
566,163	0,24
566,636	0,24
567,11	0,24
567,583	0,24
568,056	0,21
568,529	0,25
569,002	0,2
569,475	0,23
569,947	0,19
570,42	0,21
570,892	0,22
571,365	0,2
571,837	0,21
572,309	0,23
572,781	0,23
573,253	0,23
573,725	0,2
574,197	0,2
574,668	0,22
575,14	0,21
575,611	0,23
576,082	0,26
576,554	0,24
577,025	0,22
577,496	0,22
577,967	0,26
578,437	0,22
578,908	0,24
579,379	0,22
579,849	0,21
580,319	0,21
580,79	0,21
581,26	0,23
581,73	0,21
582,2	0,21
582,669	0,24
583,139	0,22
583,609	0,24
584,078	0,19
584,548	0,23
585,017	0,24
585,486	0,2
585,955	0,2
586,424	0,2
586,893	0,19
587,362	0,23
587,83	0,18
588,299	0,22
588,767	0,19
589,236	0,2
589,704	0,14
590,172	0,17
590,64	0,19
591,108	0,19
591,576	0,18
592,043	0,2
592,511	0,19
592,978	0,18
593,446	0,22
593,913	0,2
594,38	0,17
594,847	0,18
595,314	0,18
595,781	0,15
596,248	0,18
596,715	0,16
597,181	0,18
597,647	0,16
598,114	0,16
598,58	0,16
599,046	0,15
599,512	0,17
599,978	0,16
600,444	0,19
600,91	0,18
601,375	0,17
601,841	0,19
602,306	0,17
602,771	0,16
603,236	0,18
603,702	0,15
604,167	0,18
604,631	0,17
605,096	0,18
605,561	0,16
606,025	0,15
606,49	0,16
606,954	0,16
607,418	0,18
607,882	0,16
608,347	0,15
608,81	0,18
609,274	0,15
609,738	0,19
610,202	0,21
610,665	0,23
611,128	0,28
611,592	0,33
612,055	0,3
612,518	0,26
612,981	0,22
613,444	0,19
613,907	0,22
614,369	0,19
614,832	0,18
615,294	0,18
615,757	0,17
616,219	0,16
616,681	0,15
617,143	0,13
617,605	0,16
618,067	0,14
618,529	0,14
618,99	0,15
619,452	0,13
619,913	0,14
620,375	0,14
620,836	0,15
621,297	0,16
621,758	0,14
622,219	0,13
622,68	0,15
623,14	0,17
623,601	0,13
624,061	0,13
624,522	0,15
624,982	0,14
625,442	0,13
625,902	0,13
626,362	0,13
626,822	0,14
627,282	0,14
627,742	0,13
628,201	0,13
628,661	0,14
629,12	0,14
629,579	0,13
630,038	0,15
630,497	0,15
630,956	0,15
631,415	0,14
631,874	0,13
632,332	0,13
632,791	0,12
633,249	0,14
633,708	0,13
634,166	0,11
634,624	0,12
635,082	0,12
635,54	0,12
635,998	0,13
636,455	0,1
636,913	0,12
637,37	0,12
637,828	0,12
638,285	0,11
638,742	0,12
639,199	0,12
639,656	0,12
640,113	0,12
640,57	0,12
641,027	0,12
641,483	0,1
641,94	0,1
642,396	0,12
642,852	0,12
643,309	0,11
643,765	0,11
644,221	0,1
644,676	0,09
645,132	0,1
645,588	0,12
646,043	0,12
646,499	0,09
646,954	0,1
647,409	0,1
647,864	0,1
648,319	0,09
648,774	0,09
649,229	0,11
649,684	0,1
650,139	0,1
650,593	0,1
651,047	0,1
651,502	0,11
651,956	0,1
652,41	0,11
652,864	0,1
653,318	0,11
653,772	0,1
654,225	0,09
654,679	0,1
655,133	0,09
655,586	0,1
656,039	0,1
656,492	0,09
656,946	0,1
657,399	0,1
657,851	0,09
658,304	0,1
658,757	0,1
659,209	0,08
659,662	0,09
660,114	0,09
660,567	0,1
661,019	0,09
661,471	0,09
661,923	0,08
662,375	0,09
662,826	0,09
663,278	0,09
663,73	0,08
664,181	0,08
664,632	0,08
665,084	0,09
665,535	0,09
665,986	0,07
666,437	0,08
666,888	0,07
667,338	0,09
667,789	0,08
668,24	0,08
668,69	0,06
669,14	0,09
669,591	0,09
670,041	0,09
670,491	0,05
670,941	0,08
671,391	0,07
671,84	0,08
672,29	0,07
672,74	0,07
673,189	0,07
673,638	0,07
674,088	0,09
674,537	0,06
674,986	0,08
675,435	0,08
675,883	0,08
676,332	0,09
676,781	0,08
677,229	0,09
677,678	0,07
678,126	0,08
678,574	0,08
679,022	0,08
679,47	0,08
679,918	0,07
680,366	0,06
680,814	0,08
681,261	0,05
681,709	0,07
682,156	0,06
682,604	0,07
683,051	0,07
683,498	0,07
683,945	0,08
684,392	0,08
684,839	0,08
685,286	0,07
685,732	0,06
686,179	0,07
686,625	0,07
687,071	0,07
687,518	0,08
687,964	0,07
688,41	0,09
688,856	0,09
689,301	0,07
689,747	0,07
690,193	0,07
690,638	0,09
691,084	0,07
691,529	0,1
691,974	0,08
692,419	0,08
692,864	0,1
693,309	0,09
693,754	0,1
694,199	0,1
694,643	0,09
695,088	0,09
695,532	0,11
695,977	0,09
696,421	0,11
696,865	0,1
697,309	0,11
697,753	0,11
698,197	0,1
698,64	0,12
699,084	0,11
699,527	0,11
699,971	0,13
700,414	0,11
700,857	0,12
701,3	0,13
701,743	0,12
702,186	0,13
702,629	0,14
703,072	0,15
703,515	0,13
703,957	0,13
704,399	0,14
704,842	0,13
705,284	0,15
705,726	0,15
706,168	0,15
706,61	0,16
707,052	0,18
707,494	0,16
707,935	0,16
708,377	0,16
708,818	0,16
709,26	0,17
709,701	0,16
710,142	0,17
710,583	0,15
711,024	0,18
711,465	0,17
711,905	0,16
712,346	0,19
712,787	0,19
713,227	0,16
713,667	0,16
714,108	0,18
714,548	0,16
714,988	0,16
715,428	0,16
715,868	0,16
716,307	0,16
716,747	0,16
717,186	0,17
717,626	0,16
718,065	0,16
718,504	0,16
718,944	0,17
719,383	0,16
719,822	0,16
720,261	0,15
720,699	0,16
721,138	0,17
721,576	0,16
722,015	0,16
722,453	0,18
722,892	0,16
723,33	0,16
723,768	0,17
724,206	0,17
724,644	0,17
725,081	0,17
725,519	0,18
725,957	0,19
726,394	0,18
726,832	0,18
727,269	0,19
727,706	0,19
728,143	0,17
728,58	0,19
729,017	0,16
729,454	0,2
729,89	0,19
730,327	0,17
730,764	0,18
731,2	0,17
731,636	0,17
732,072	0,19
732,509	0,18
732,945	0,18
733,38	0,18
733,816	0,2
734,252	0,2
734,688	0,16
735,123	0,2
735,559	0,18
735,994	0,18
736,429	0,18
736,864	0,17
737,299	0,2
737,734	0,17
738,169	0,19
738,604	0,19
739,038	0,17
739,473	0,2
739,907	0,2
740,342	0,19
740,776	0,18
741,21	0,18
741,644	0,18
742,078	0,18
742,512	0,2
742,946	0,18
743,379	0,19
743,813	0,17
744,246	0,17
744,68	0,19
745,113	0,19
745,546	0,19
745,979	0,19
746,412	0,19
746,845	0,18
747,278	0,2
747,711	0,18
748,143	0,19
748,576	0,2
749,008	0,18
749,441	0,2
749,873	0,18
750,305	0,19
750,737	0,17
751,169	0,18
751,601	0,2
752,032	0,18
752,464	0,19
752,896	0,19
753,327	0,18
753,758	0,18
754,19	0,2
754,621	0,19
755,052	0,19
755,483	0,18
755,914	0,18
756,344	0,19
756,775	0,19
757,206	0,19
757,636	0,18
758,066	0,18
758,497	0,18
758,927	0,18
759,357	0,17
759,787	0,18
760,217	0,2
760,647	0,2
761,076	0,21
761,506	0,19
761,935	0,18
762,365	0,19
762,794	0,19
763,223	0,19
763,653	0,19
764,082	0,19
764,51	0,17
764,939	0,2
765,368	0,18
765,797	0,16
766,225	0,18
766,654	0,18
767,082	0,19
767,51	0,18
767,938	0,2
768,367	0,18
768,795	0,19
769,222	0,19
769,65	0,18
770,078	0,18
770,505	0,18
770,933	0,2
771,36	0,19
771,788	0,19
772,215	0,18
772,642	0,2
773,069	0,18
773,496	0,19
773,923	0,19
774,349	0,19
774,776	0,19
775,203	0,18
775,629	0,19
776,055	0,17
776,482	0,19
776,908	0,19
777,334	0,18
777,76	0,18
778,186	0,18
778,611	0,19
779,037	0,19
779,463	0,19
779,888	0,18
780,314	0,2
780,739	0,19
781,164	0,18
781,589	0,18
782,014	0,19
782,439	0,19
782,864	0,18
783,289	0,18
783,713	0,17
784,138	0,18
784,562	0,19
784,987	0,18
785,411	0,19
785,835	0,18
786,259	0,18
786,683	0,19
787,107	0,19
787,531	0,19
787,954	0,19
788,378	0,2
788,802	0,18
789,225	0,19
789,648	0,2
790,071	0,19
790,495	0,18
790,918	0,19
791,34	0,18
791,763	0,18
792,186	0,18
792,609	0,19
793,031	0,18
793,454	0,19
793,876	0,18
794,298	0,21
794,721	0,18
795,143	0,17
795,565	0,2
795,986	0,17
796,408	0,18
796,83	0,17
797,252	0,17
797,673	0,19
798,094	0,18
798,516	0,19
798,937	0,19
799,358	0,2
799,779	0,2
800,2	0,19
800,621	0,2
801,042	0,2
801,462	0,17
801,883	0,19
802,303	0,17
802,724	0,18
803,144	0,18
803,564	0,2
803,984	0,2
804,404	0,2
804,824	0,19
805,244	0,19
805,664	0,19
806,084	0,2
806,503	0,2
806,923	0,19
807,342	0,2
807,761	0,18
808,18	0,19
808,599	0,21
809,018	0,18
809,437	0,2
809,856	0,18
810,275	0,2
810,693	0,2
811,112	0,2
811,53	0,21
811,949	0,19
812,367	0,18
812,785	0,2
813,203	0,19
813,621	0,2
814,039	0,18
814,457	0,19
814,874	0,2
815,292	0,2
815,709	0,2
816,127	0,21
816,544	0,21
816,961	0,2
817,378	0,22
817,795	0,21
818,212	0,2
818,629	0,22
819,046	0,2
819,462	0,2
819,879	0,22
820,295	0,19
820,712	0,2
821,128	0,2
821,544	0,21
821,96	0,2
822,376	0,19
822,792	0,22
823,208	0,2
823,624	0,2
824,039	0,19
824,455	0,2
824,87	0,21
825,286	0,2
825,701	0,2
826,116	0,21
826,531	0,21
826,946	0,21
827,361	0,2
827,776	0,18
828,19	0,21
828,605	0,19
829,02	0,2
829,434	0,21
829,848	0,22
830,263	0,19
830,677	0,2
831,091	0,2
831,505	0,2
831,919	0,18
832,332	0,17
832,746	0,2
833,16	0,2
833,573	0,18
833,987	0,22
834,4	0,19
834,813	0,2
835,226	0,22
835,639	0,2
836,052	0,19
836,465	0,2
836,878	0,2
837,29	0,19
837,703	0,21
838,116	0,21
838,528	0,22
838,94	0,2
839,352	0,21
839,765	0,18
840,177	0,19
840,589	0,22
841	0,21
841,412	0,19
841,824	0,19
842,235	0,21
842,647	0,2
843,058	0,22
843,47	0,2
843,881	0,2
844,292	0,21
844,703	0,2
845,114	0,2
845,525	0,22
845,935	0,21
846,346	0,21
846,757	0,23
847,167	0,19
847,577	0,23
847,988	0,21
848,398	0,21
848,808	0,2
849,218	0,2
849,628	0,19
850,038	0,21
850,448	0,21
850,857	0,19
851,267	0,19
851,676	0,23
852,086	0,22
852,495	0,22
852,904	0,23
853,313	0,2
853,722	0,22
854,131	0,2
854,54	0,21
854,949	0,2
855,357	0,2
855,766	0,21
856,174	0,19
856,583	0,23
856,991	0,2
857,399	0,22
857,807	0,21
858,215	0,19
858,623	0,2
859,031	0,2
859,439	0,18
859,846	0,2
860,254	0,23
860,661	0,19
861,069	0,21
861,476	0,18
861,883	0,21
862,29	0,22
862,697	0,19
863,104	0,2
863,511	0,21
863,918	0,2
864,325	0,21
864,731	0,2
865,138	0,22
865,544	0,2
865,95	0,19
866,357	0,21
866,763	0,22
867,169	0,2
867,575	0,2
867,98	0,18
868,386	0,18
868,792	0,22
869,197	0,21
869,603	0,2
870,008	0,23
870,414	0,2
870,819	0,21
871,224	0,22
871,629	0,18
872,034	0,22
872,439	0,18
872,844	0,22
873,248	0,2
873,653	0,21
874,057	0,23
874,462	0,2
874,866	0,19
875,27	0,2
875,674	0,21
876,078	0,22
876,482	0,21
876,886	0,2
877,29	0,21
877,694	0,2
878,097	0,21
878,501	0,22
878,904	0,22
879,308	0,22
879,711	0,21
880,114	0,21
880,517	0,22
880,92	0,24
881,323	0,22
881,726	0,21
882,128	0,2
882,531	0,2
882,934	0,21
883,336	0,23
883,738	0,22
884,141	0,2
884,543	0,23
884,945	0,23
885,347	0,22
885,749	0,22
886,151	0,22
886,552	0,2
886,954	0,2
887,355	0,22
887,757	0,19
888,158	0,23
888,56	0,22
888,961	0,21
889,362	0,2
889,763	0,21
890,164	0,22
890,565	0,23
890,965	0,22
891,366	0,22
891,767	0,22
892,167	0,19
892,567	0,21
892,968	0,25
893,368	0,22
893,768	0,22
894,168	0,23
894,568	0,2
894,968	0,22
895,368	0,22
895,767	0,22
896,167	0,22
896,566	0,21
896,966	0,21
897,365	0,23
897,764	0,2
898,164	0,22
898,563	0,22
898,962	0,21
899,361	0,21
899,759	0,23
900,158	0,22
900,557	0,23
900,955	0,2
901,354	0,22
901,752	0,24
902,15	0,22
902,548	0,23
902,947	0,22
903,345	0,18
903,742	0,21
904,14	0,24
904,538	0,21
904,936	0,22
905,333	0,2
905,731	0,23
906,128	0,2
906,525	0,2
906,923	0,21
907,32	0,21
907,717	0,21
908,114	0,21
908,511	0,19
908,907	0,2
909,304	0,18
909,701	0,21
910,097	0,19
910,494	0,21
910,89	0,22
911,286	0,21
911,682	0,2
912,078	0,21
912,474	0,21
912,87	0,21
913,266	0,22
913,662	0,23
914,058	0,23
914,453	0,26
914,849	0,24
915,244	0,23
915,639	0,24
916,034	0,23
916,43	0,21
916,825	0,23
917,22	0,21
917,614	0,23
918,009	0,22
918,404	0,22
918,798	0,22
919,193	0,21
919,587	0,24
919,982	0,23
920,376	0,22
920,77	0,21
921,164	0,23
921,558	0,22
921,952	0,22
922,346	0,24
922,74	0,23
923,133	0,21
923,527	0,21
923,92	0,22
924,314	0,25
924,707	0,22
925,1	0,22
925,493	0,22
925,886	0,21
926,279	0,21
926,672	0,25
927,065	0,2
927,457	0,26
927,85	0,22
928,243	0,25
928,635	0,22
929,027	0,23
929,42	0,23
929,812	0,24
930,204	0,3
930,596	0,25
930,988	0,25
931,379	0,25
931,771	0,26
932,163	0,24
932,554	0,28
932,946	0,27
933,337	0,25
933,729	0,24
934,12	0,26
934,511	0,26
934,902	0,25
935,293	0,26
935,684	0,3
936,075	0,27
936,465	0,29
936,856	0,33
937,246	0,3
937,637	0,35
938,027	0,31
938,417	0,37
938,808	0,4
939,198	0,4
939,588	0,42
939,978	0,41
940,368	0,41
940,757	0,5
941,147	0,49
941,537	0,46
941,926	0,35
942,315	0,49
942,705	0,55
943,094	0,45
943,483	0,44
943,872	0,46
944,261	0,46
944,65	0,51
945,039	0,42
945,428	0,46
945,816	0,37
946,205	0,53
946,593	0,45
946,982	0,42
947,37	0,51
947,758	0,4
948,146	0,4
948,534	0,49
948,922	0,45
949,31	0,37
949,698	0,46
950,086	0,41
950,473	0,39
950,861	0,37
951,248	0,39
951,636	0,37
952,023	0,38
952,41	0,4
952,797	0,36
953,184	0,35
953,571	0,39
953,958	0,34
954,345	0,38
954,731	0,38
955,118	0,36
955,505	0,37
955,891	0,39
956,277	0,31
956,664	0,36
957,05	0,3
957,436	0,32
957,822	0,34
958,208	0,35
958,594	0,32
958,979	0,33
959,365	0,33
959,751	0,36
960,136	0,32
960,522	0,3
960,907	0,3
961,292	0,32
961,677	0,34
962,062	0,35
962,447	0,28
962,832	0,3
963,217	0,34
963,602	0,34
963,986	0,31
964,371	0,3
964,756	0,32
965,14	0,28
965,524	0,33
965,908	0,3
966,293	0,32
966,677	0,29
967,061	0,31
967,445	0,28
967,828	0,31
968,212	0,27
968,596	0,33
968,979	0,32
969,363	0,3
969,746	0,27
970,129	0,33
970,513	0,32
970,896	0,35
971,279	0,29
971,662	0,33
972,045	0,34
972,428	0,32
972,81	0,34
973,193	0,33
973,575	0,34
973,958	0,3
974,34	0,36
974,723	0,31
975,105	0,31
975,487	0,24
975,869	0,32
976,251	0,31
976,633	0,33
977,015	0,31
977,396	0,29
977,778	0,32
978,16	0,33
978,541	0,28
978,922	0,32
979,304	0,3
979,685	0,33
980,066	0,35
980,447	0,36
980,828	0,33
981,209	0,34
981,59	0,35
981,97	0,3
982,351	0,36
982,732	0,32
983,112	0,36
983,493	0,3
983,873	0,31
984,253	0,35
984,633	0,3
985,013	0,38
985,393	0,38
985,773	0,34
986,153	0,34
986,533	0,37
986,912	0,32
987,292	0,36
987,671	0,32
988,051	0,36
988,43	0,32
988,809	0,3
989,188	0,41
989,567	0,36
989,946	0,27
990,325	0,38
990,704	0,3
991,083	0,37
991,461	0,33
991,84	0,34
992,218	0,34
992,597	0,37
992,975	0,34
993,353	0,36
993,732	0,37
994,11	0,33
994,488	0,39
994,866	0,32
995,243	0,3
995,621	0,37
995,999	0,36
996,376	0,36
996,754	0,31
997,131	0,29
997,509	0,36
997,886	0,42
998,263	0,34
998,64	0,34
999,017	0,36
999,394	0,37
999,771	0,36
1000,148	0,36
1000,524	0,41
1000,901	0,3
1001,277	0,36
1001,654	0,36
1002,03	0,35
1002,406	0,34
1002,783	0,41
1003,159	0,36
1003,535	0,35
1003,911	0,37
1004,286	0,39
1004,662	0,41
1005,038	0,37
1005,414	0,43
1005,789	0,43
1006,164	0,38
1006,54	0,38
1006,915	0,36
1007,29	0,4
1007,665	0,41
1008,04	0,37
1008,415	0,36
1008,79	0,4
1009,165	0,37
1009,54	0,43
1009,914	0,41
1010,289	0,39
1010,663	0,38
1011,038	0,39
1011,412	0,44
1011,786	0,4
1012,16	0,43
1012,535	0,4
1012,909	0,43
1013,282	0,46
1013,656	0,46
1014,03	0,4
1014,404	0,55
1014,777	0,46
1015,151	0,45
1015,524	0,48
1015,897	0,41
1016,271	0,37
1016,644	0,44
1017,017	0,5
1017,39	0,46
1017,763	0,54
1018,136	0,44
1018,508	0,45
1018,881	0,47
1019,254	0,49
1019,626	0,48
1019,999	0,44
1020,371	0,47
1020,743	0,46
1021,116	0,46
1021,488	0,57
1021,86	0,49
1022,232	0,5
1022,604	0,48
1022,975	0,5
1023,347	0,5
1023,719	0,53
1024,09	0,45
1024,462	0,47
1024,833	0,48
1025,204	0,51
1025,576	0,53
1025,947	0,52
1026,318	0,53
1026,689	0,52
1027,06	0,48
1027,431	0,54
1027,801	0,63
1028,172	0,56
1028,543	0,66
1028,913	0,55
1029,284	0,52
1029,654	0,55
1030,024	0,58
1030,394	0,47
1030,764	0,55
1031,135	0,5
1031,504	0,62
1031,874	0,57
1032,244	0,58
1032,614	0,58
1032,983	0,57
1033,353	0,62
1033,722	0,61
1034,092	0,54
1034,461	0,55
1034,83	0,56
1035,2	0,6
1035,569	0,6
1035,938	0,58
1036,307	0,57
1036,675	0,54
1037,044	0,59
1037,413	0,64
1037,781	0,62
1038,15	0,64
1038,518	0,61
1038,887	0,77
1039,255	0,66
1039,623	0,67
1039,991	0,7
1040,359	0,63
1040,727	0,56
1041,095	0,56
1041,463	0,76
1041,831	0,64
1042,198	0,75
1042,566	0,62
1042,933	0,65
1043,301	0,62
1043,668	0,76
1044,035	0,69
1044,402	0,72
1044,77	0,72
1045,137	0,59
1045,503	0,58
1045,87	0,68
1046,237	0,68
1046,604	0,76
1046,97	0,77
1047,337	0,58
1047,703	0,8
1048,07	0,63
1048,436	0,78
1048,802	0,74
1049,168	0,9
1049,534	0,78
1049,9	0,75
1050,266	0,72
1050,632	0,97
1050,998	0,9
1051,364	0,81
1051,729	0,83
1052,095	0,81
1052,46	1,03
1052,825	0,82
1053,191	0,94
1053,556	0,87
1053,921	0,78
1054,286	0,69
1054,651	1,06
1055,016	0,79
1055,381	0,77
1055,745	0,82
1056,11	0,86
1056,475	0,78
1056,839	0,96
1057,203	0,93
1057,568	0,97
1057,932	1,14
1058,296	1,02
1058,66	1,16
1059,024	0,98
1059,388	1,17
1059,752	0,82
1060,116	1,05
1060,48	0,88
1060,843	1,24
1061,207	1,16
1061,57	1,06
1061,934	1
1062,297	1,28
1062,66	1,07
1063,023	1,31
1063,386	1,27
1063,749	1,27
1064,112	1,3
1064,475	1,41
1064,838	1,32
1065,201	1,07
1065,563	1,26
1065,926	1,42
1066,288	1,26
1066,651	1,61
1067,013	1,28
1067,375	1,48
1067,737	1,4
1068,099	1,2
1068,461	1,59
1068,823	1,41
1069,185	1,62
1069,547	1,67
1069,909	1,48
1070,27	1,39
1070,632	1,4
1070,993	1,04
1071,355	1,71
1071,716	1,36
1072,077	1,66
1072,438	1,42
1072,799	1,48
1073,16	1,74
1073,521	1,59
1073,882	1,56
1074,243	1,55
1074,603	1,55
1074,964	1,78
1075,325	1,66
1075,685	1,69
1076,045	1,71
1076,406	1,91
1076,766	1,56
1077,126	1,88
1077,486	1,42
1077,846	1,81
1078,206	1,65
1078,566	1,7
1078,925	1,54
1079,285	2
1079,645	1,55
1080,004	2,02
1080,364	1,74
1080,723	1,82
1081,082	1,69
1081,442	2,17
1081,801	2,08
1082,16	2,28
1082,519	1,73
1082,878	1,85
1083,237	1,79
1083,595	2,26
1083,954	2,18
1084,313	2,26
1084,671	2,04
1085,03	2,11
1085,388	2,09
1085,746	1,79
1086,104	1,71
1086,463	1,84
1086,821	1,98
1087,179	2,02
1087,537	2,12
1087,894	2,01
1088,252	2,25
1088,61	1,99
1088,967	2,05
1089,325	2,28
1089,682	2,79
1090,04	2,42
1090,397	2,5
1090,754	2,79
1091,111	2,69
1091,469	2,76
1091,826	1,85
1092,182	2,58
1092,539	2,96
1092,896	2,39
1093,253	3,1
1093,609	2,28
1093,966	1,97
1094,322	2,2
1094,679	2,85
1095,035	2,07
1095,391	2,82
1095,748	2,65
1096,104	2,59
1096,46	2,55
1096,816	2,3
1097,171	2,74
1097,527	2,93
1097,883	3,16
1098,239	3,36
1098,594	3,07
1098,95	3,49
1099,305	3,45
1099,66	3,22
1100,016	2,98
1100,371	3,7
1100,726	3,12
1101,081	3,94
1101,436	2,84
1101,791	3,43
1102,146	3,42
1102,5	3,05
1102,855	2,91
1103,21	3,71
1103,564	3,41
1103,918	3,35
1104,273	3,08
1104,627	3,45
1104,981	3,36
1105,335	2,79
1105,69	3,58
1106,043	3,6
1106,397	4,03
1106,751	4,8
1107,105	3,77
1107,459	3,82
1107,812	5,1
1108,166	4,66
1108,519	4,13
1108,873	4,19
1109,226	3,99
1109,579	5,46
1109,932	4,14
1110,285	4,87
1110,638	4,51
1110,991	4,43
1111,344	4,68
1111,697	5,33
1112,05	4,81
1112,402	5
1112,755	4,92
1113,107	5,42
1113,46	5,87
1113,812	6,45
1114,164	6,64
1114,517	6,04
1114,869	48,08
1115,221	43,95
1115,573	37,76
1115,924	44,71
