Data from A6__Relative__9__00019.txt Node

Date: Wed Jan 31 17:55:39 CET 2024
User: diatiterra
Spectrometer: HDX00911
Trigger mode: 0
Integration Time (sec): 6,000000E-3
Scans to average: 2
Nonlinearity correction enabled: false
Boxcar width: 0
Storing dark spectrum: false
XAxis mode: Wavelengths
Number of Pixels in Spectrum: 2068
>>>>>Begin Spectral Data<<<<<
194,468	35,85
195,025	22,73
195,581	23,17
196,138	24,36
196,694	4,94
197,251	3,54
197,807	5,51
198,363	8,8
198,919	11,03
199,474	12,5
200,03	12,7
200,586	11,61
201,141	9,35
201,696	12,75
202,251	9,47
202,806	7,69
203,361	11,48
203,916	7,29
204,471	9,12
205,025	19,35
205,58	8,21
206,134	14
206,688	8,46
207,242	6,64
207,796	4,14
208,35	13,04
208,904	16,21
209,457	1,39
210,011	2,13
210,564	12,32
211,117	9,02
211,67	9,33
212,223	8,22
212,776	6,05
213,329	7,33
213,881	1,96
214,434	7,24
214,986	7,85
215,538	11,03
216,09	5,99
216,642	7,44
217,194	8,71
217,746	13,53
218,297	6,11
218,849	6,62
219,4	2,52
219,951	2,42
220,502	14,86
221,053	10,69
221,604	14,43
222,155	-0,4
222,705	3,31
223,256	8,58
223,806	3,94
224,356	11,54
224,906	11,69
225,456	9,69
226,006	3,97
226,556	0,97
227,106	2,42
227,655	4,17
228,204	5,42
228,754	3,17
229,303	10,36
229,852	0,72
230,401	7,09
230,949	6,47
231,498	5,63
232,047	9,42
232,595	13,45
233,143	11,42
233,691	0,78
234,239	0
234,787	2,8
235,335	8,58
235,883	10,14
236,43	4,92
236,978	8,08
237,525	5,11
238,072	10,99
238,619	4,55
239,166	2,48
239,713	4,38
240,26	8,93
240,806	13,19
241,353	2,38
241,899	7,69
242,445	7,3
242,991	6,87
243,537	0,76
244,083	12,98
244,629	9,23
245,174	0
245,72	4,44
246,265	-2,78
246,81	6,4
247,355	5,95
247,9	3,36
248,445	7,14
248,99	3,03
249,534	10
250,079	6,39
250,623	5,93
251,168	7,02
251,712	2,34
252,256	3,69
252,8	11,54
253,343	9,29
253,887	4,44
254,43	3,82
254,974	6,49
255,517	6,85
256,06	18,85
256,603	1,11
257,146	6,59
257,689	9,84
258,232	8,05
258,774	12,06
259,317	6,36
259,859	-2,75
260,401	7,36
260,943	5,32
261,485	6,74
262,027	7,6
262,569	6,72
263,11	2,69
263,652	14,17
264,193	8,68
264,734	9,85
265,275	2,87
265,816	5,34
266,357	15,5
266,898	11,92
267,438	11,42
267,979	6,83
268,519	6,34
269,059	0,93
269,6	12,41
270,14	15,32
270,68	13,41
271,219	7,2
271,759	3,38
272,298	10,9
272,838	9,23
273,377	4,76
273,916	6,47
274,455	16,06
274,994	2,4
275,533	10,87
276,072	8,13
276,61	4,71
277,149	10,42
277,687	6,77
278,225	9,33
278,763	11,84
279,301	-0,83
279,839	5,24
280,377	0,41
280,914	11,19
281,452	6,84
281,989	13,22
282,526	8,27
283,064	4,2
283,601	11,15
284,137	2,89
284,674	8,33
285,211	10,53
285,747	13,26
286,284	12,16
286,82	4,55
287,356	11,51
287,892	13,18
288,428	5,37
288,964	18,91
289,5	11,98
290,035	12,4
290,571	8,82
291,106	15,85
291,641	9,82
292,176	15,62
292,711	13,41
293,246	8,85
293,781	16,12
294,315	4,93
294,85	12,5
295,384	6,15
295,918	4,04
296,453	5,22
296,987	2,89
297,52	9,09
298,054	6,49
298,588	2,08
299,121	10,82
299,655	10,95
300,188	8,33
300,721	6,1
301,254	5,24
301,787	6,64
302,32	8,94
302,853	3,2
303,385	10,36
303,918	7,75
304,45	11,92
304,982	6,38
305,514	8,14
306,046	-0,41
306,578	6,2
307,11	6,98
307,641	3,02
308,173	7,85
308,704	0,41
309,236	3,01
309,767	10,64
310,298	1,21
310,829	7,83
311,359	5,24
311,89	3,78
312,421	-6,31
312,951	7,32
313,481	12,76
314,012	11,19
314,542	4,66
315,072	8,78
315,601	-0,4
316,131	10,24
316,661	-5
317,19	9,63
317,72	11,98
318,249	6,75
318,778	5,47
319,307	4,69
319,836	0
320,365	-0,43
320,893	-2,89
321,422	13,01
321,95	13,91
322,479	10,31
323,007	1,36
323,535	10
324,063	8,8
324,591	5,2
325,118	17,15
325,646	9,24
326,173	0,42
326,701	14,63
327,228	6,47
327,755	9,02
328,282	6,11
328,809	10,17
329,336	7,09
329,862	11,76
330,389	5,47
330,915	11,02
331,441	9,54
331,968	2,7
332,494	13,26
333,02	2,5
333,545	7,46
334,071	16,53
334,597	2,46
335,122	9,63
335,648	6,47
336,173	4,17
336,698	12,97
337,223	10,66
337,748	13,89
338,272	14,38
338,797	11,96
339,322	4,74
339,846	5,88
340,37	13,31
340,894	11,46
341,419	14,29
341,942	6,64
342,466	10,9
342,99	8,72
343,514	9,15
344,037	9,18
344,56	17,41
345,084	10,96
345,607	7,64
346,13	9,15
346,653	11,33
347,175	10,9
347,698	3,46
348,221	1,79
348,743	7,45
349,265	3,96
349,787	7,98
350,309	4,75
350,831	4,01
351,353	3,96
351,875	7,02
352,397	2,8
352,918	6,25
353,439	11,26
353,961	2,33
354,482	9,94
355,003	13,37
355,524	9,72
356,044	5,97
356,565	9,04
357,086	10,73
357,606	4,95
358,126	5,32
358,646	7,4
359,167	10,54
359,687	3,11
360,206	5,74
360,726	4,27
361,246	8,78
361,765	3,95
362,285	3,5
362,804	3,42
363,323	1,46
363,842	0,55
364,361	5,97
364,88	5,91
365,398	6,33
365,917	3,3
366,435	5,99
366,954	6,25
367,472	0,47
367,99	5,92
368,508	6,28
369,026	7,73
369,544	3,07
370,061	6,09
370,579	4,92
371,096	1,83
371,613	3,66
372,131	4,72
372,648	6,5
373,165	3,71
373,681	-1,69
374,198	7,23
374,715	3,57
375,231	4,36
375,747	5,34
376,264	4,59
376,78	3,06
377,296	4,09
377,812	2,66
378,327	3,64
378,843	4,78
379,359	4,47
379,874	4,84
380,389	4,42
380,905	2,99
381,42	5,32
381,935	4,12
382,449	3,98
382,964	4,86
383,479	2,01
383,993	1,8
384,508	3,02
385,022	2,2
385,536	2,5
386,05	2,1
386,564	2,74
387,078	1,67
387,592	1,7
388,105	5,79
388,619	3,35
389,132	1,69
389,645	1,49
390,158	-0,21
390,671	3,97
391,184	0,1
391,697	2,4
392,21	0,73
392,722	-0,3
393,235	2,63
393,747	1,85
394,259	1,87
394,771	1,28
395,283	1,56
395,795	0,09
396,307	1,68
396,818	2,54
397,33	-0,43
397,841	0,62
398,353	0,85
398,864	1,66
399,375	-0,08
399,886	2,74
400,397	1,16
400,907	2,34
401,418	1,91
401,928	1,76
402,439	2,09
402,949	1,31
403,459	0,98
403,969	1,37
404,479	2
404,989	0,88
405,498	1,94
406,008	0,84
406,517	1,42
407,027	1,46
407,536	0,78
408,045	0,29
408,554	1,14
409,063	0,84
409,572	0,39
410,08	0,17
410,589	0,84
411,097	1,2
411,606	0,95
412,114	0,71
412,622	0,58
413,13	0,5
413,638	0,96
414,145	1
414,653	1,17
415,16	0,96
415,668	0,68
416,175	0,19
416,682	0,61
417,189	-0,3
417,696	0,85
418,203	0,56
418,71	0,86
419,216	0,72
419,723	0,75
420,229	0,7
420,735	0,46
421,242	0,88
421,748	0,95
422,254	0,74
422,759	0,74
423,265	0,64
423,771	0,64
424,276	0,73
424,781	0,41
425,287	0,52
425,792	0,63
426,297	0,71
426,802	0,3
427,306	0,44
427,811	0,5
428,316	0,88
428,82	0,54
429,324	0,53
429,829	0,82
430,333	0,66
430,837	0,47
431,34	0,49
431,844	0,47
432,348	0,27
432,851	0,38
433,355	0,27
433,858	0,63
434,361	0,26
434,864	0,32
435,367	0,61
435,87	0,96
436,373	0,68
436,876	0,6
437,378	0,64
437,88	0,12
438,383	0,32
438,885	0,35
439,387	0,49
439,889	0,63
440,391	0,33
440,892	0,51
441,394	0,35
441,896	0,63
442,397	0,35
442,898	0,27
443,399	0,48
443,9	0,37
444,401	0,42
444,902	0,49
445,403	0,76
445,903	0,35
446,404	0,59
446,904	0,4
447,405	0,46
447,905	0,46
448,405	0,46
448,905	0,51
449,404	0,53
449,904	0,54
450,404	0,44
450,903	0,5
451,403	0,27
451,902	0,52
452,401	0,72
452,9	0,57
453,399	0,67
453,898	0,35
454,396	0,46
454,895	0,32
455,393	0,4
455,892	0,32
456,39	0,34
456,888	0,37
457,386	0,35
457,884	0,43
458,382	0,41
458,879	0,34
459,377	0,67
459,874	0,4
460,372	0,58
460,869	0,42
461,366	0,34
461,863	0,41
462,36	0,52
462,857	0,46
463,353	0,51
463,85	0,51
464,346	0,41
464,843	0,46
465,339	0,39
465,835	0,39
466,331	0,46
466,827	0,42
467,323	0,36
467,818	0,57
468,314	0,43
468,809	0,48
469,305	0,29
469,8	0,45
470,295	0,46
470,79	0,48
471,285	0,36
471,78	0,3
472,274	0,43
472,769	0,4
473,263	0,32
473,758	0,37
474,252	0,3
474,746	0,59
475,24	0,36
475,734	0,32
476,228	0,54
476,721	0,51
477,215	0,36
477,708	0,28
478,202	0,35
478,695	0,5
479,188	0,4
479,681	0,34
480,174	0,41
480,667	0,51
481,159	0,46
481,652	0,37
482,144	0,63
482,637	0,47
483,129	0,26
483,621	0,52
484,113	0,47
484,605	0,55
485,097	0,56
485,588	0,55
486,08	0,56
486,571	0,6
487,063	0,51
487,554	0,58
488,045	0,48
488,536	0,54
489,027	0,5
489,518	0,6
490,008	0,45
490,499	0,47
490,989	0,49
491,48	0,48
491,97	0,4
492,46	0,6
492,95	0,63
493,44	0,51
493,93	0,43
494,419	0,59
494,909	0,52
495,398	0,62
495,888	0,46
496,377	0,61
496,866	0,55
497,355	0,43
497,844	0,6
498,333	0,55
498,821	0,58
499,31	0,51
499,798	0,45
500,287	0,44
500,775	0,46
501,263	0,56
501,751	0,61
502,239	0,47
502,727	0,53
503,215	0,55
503,702	0,5
504,19	0,49
504,677	0,55
505,164	0,6
505,651	0,59
506,139	0,51
506,625	0,36
507,112	0,41
507,599	0,5
508,086	0,41
508,572	0,48
509,058	0,57
509,545	0,5
510,031	0,37
510,517	0,51
511,003	0,44
511,489	0,57
511,974	0,45
512,46	0,49
512,946	0,49
513,431	0,38
513,916	0,55
514,401	0,41
514,887	0,42
515,371	0,53
515,856	0,49
516,341	0,52
516,826	0,36
517,31	0,48
517,795	0,55
518,279	0,32
518,763	0,46
519,247	0,41
519,731	0,47
520,215	0,33
520,699	0,49
521,182	0,39
521,666	0,48
522,149	0,49
522,633	0,4
523,116	0,51
523,599	0,46
524,082	0,47
524,565	0,45
525,048	0,43
525,53	0,37
526,013	0,5
526,495	0,46
526,978	0,53
527,46	0,45
527,942	0,51
528,424	0,47
528,906	0,39
529,388	0,46
529,87	0,47
530,351	0,38
530,833	0,43
531,314	0,48
531,795	0,35
532,277	0,39
532,758	0,51
533,238	0,49
533,719	0,45
534,2	0,4
534,681	0,49
535,161	0,52
535,642	0,42
536,122	0,46
536,602	0,5
537,082	0,58
537,562	0,51
538,042	0,46
538,522	0,56
539,001	0,45
539,481	0,6
539,96	0,55
540,44	0,57
540,919	0,63
541,398	0,65
541,877	0,58
542,356	0,66
542,835	0,59
543,313	0,62
543,792	0,62
544,27	0,65
544,749	0,67
545,227	0,58
545,705	0,67
546,183	0,84
546,661	0,66
547,139	0,63
547,616	0,67
548,094	0,61
548,571	0,58
549,049	0,58
549,526	0,52
550,003	0,49
550,48	0,47
550,957	0,53
551,434	0,48
551,911	0,45
552,387	0,48
552,864	0,48
553,34	0,53
553,817	0,43
554,293	0,47
554,769	0,41
555,245	0,58
555,721	0,46
556,197	0,44
556,672	0,44
557,148	0,38
557,623	0,48
558,099	0,41
558,574	0,44
559,049	0,37
559,524	0,48
559,999	0,54
560,474	0,48
560,948	0,4
561,423	0,44
561,897	0,41
562,372	0,39
562,846	0,56
563,32	0,52
563,794	0,4
564,268	0,51
564,742	0,45
565,216	0,42
565,69	0,45
566,163	0,41
566,636	0,47
567,11	0,45
567,583	0,48
568,056	0,47
568,529	0,53
569,002	0,5
569,475	0,51
569,947	0,42
570,42	0,44
570,892	0,5
571,365	0,52
571,837	0,53
572,309	0,53
572,781	0,43
573,253	0,48
573,725	0,53
574,197	0,55
574,668	0,5
575,14	0,49
575,611	0,53
576,082	0,57
576,554	0,58
577,025	0,58
577,496	0,52
577,967	0,54
578,437	0,57
578,908	0,64
579,379	0,59
579,849	0,57
580,319	0,63
580,79	0,62
581,26	0,56
581,73	0,63
582,2	0,58
582,669	0,68
583,139	0,66
583,609	0,59
584,078	0,65
584,548	0,62
585,017	0,61
585,486	0,64
585,955	0,59
586,424	0,67
586,893	0,65
587,362	0,69
587,83	0,77
588,299	0,66
588,767	0,72
589,236	0,68
589,704	0,62
590,172	0,68
590,64	0,59
591,108	0,64
591,576	0,63
592,043	0,65
592,511	0,63
592,978	0,76
593,446	0,7
593,913	0,63
594,38	0,64
594,847	0,62
595,314	0,73
595,781	0,63
596,248	0,62
596,715	0,64
597,181	0,67
597,647	0,65
598,114	0,73
598,58	0,64
599,046	0,65
599,512	0,77
599,978	0,69
600,444	0,63
600,91	0,7
601,375	0,69
601,841	0,63
602,306	0,71
602,771	0,66
603,236	0,67
603,702	0,73
604,167	0,7
604,631	0,59
605,096	0,67
605,561	0,68
606,025	0,68
606,49	0,69
606,954	0,71
607,418	0,7
607,882	0,69
608,347	0,71
608,81	0,76
609,274	0,76
609,738	0,8
610,202	0,87
610,665	1,01
611,128	1,14
611,592	1,29
612,055	1,27
612,518	0,97
612,981	0,9
613,444	0,8
613,907	0,8
614,369	0,83
614,832	0,82
615,294	0,78
615,757	0,71
616,219	0,8
616,681	0,71
617,143	0,68
617,605	0,73
618,067	0,73
618,529	0,69
618,99	0,76
619,452	0,7
619,913	0,8
620,375	0,73
620,836	0,71
621,297	0,72
621,758	0,73
622,219	0,74
622,68	0,67
623,14	0,73
623,601	0,73
624,061	0,69
624,522	0,7
624,982	0,72
625,442	0,77
625,902	0,7
626,362	0,69
626,822	0,76
627,282	0,7
627,742	0,75
628,201	0,7
628,661	0,77
629,12	0,79
629,579	0,67
630,038	0,7
630,497	0,8
630,956	0,71
631,415	0,73
631,874	0,77
632,332	0,69
632,791	0,68
633,249	0,68
633,708	0,65
634,166	0,67
634,624	0,66
635,082	0,68
635,54	0,67
635,998	0,66
636,455	0,68
636,913	0,68
637,37	0,67
637,828	0,65
638,285	0,66
638,742	0,66
639,199	0,7
639,656	0,67
640,113	0,69
640,57	0,63
641,027	0,65
641,483	0,65
641,94	0,68
642,396	0,69
642,852	0,7
643,309	0,65
643,765	0,64
644,221	0,61
644,676	0,66
645,132	0,6
645,588	0,67
646,043	0,65
646,499	0,69
646,954	0,66
647,409	0,66
647,864	0,67
648,319	0,64
648,774	0,64
649,229	0,62
649,684	0,63
650,139	0,63
650,593	0,67
651,047	0,69
651,502	0,62
651,956	0,65
652,41	0,68
652,864	0,65
653,318	0,66
653,772	0,69
654,225	0,66
654,679	0,68
655,133	0,63
655,586	0,63
656,039	0,66
656,492	0,64
656,946	0,62
657,399	0,69
657,851	0,66
658,304	0,68
658,757	0,67
659,209	0,63
659,662	0,64
660,114	0,65
660,567	0,64
661,019	0,65
661,471	0,66
661,923	0,6
662,375	0,62
662,826	0,61
663,278	0,64
663,73	0,62
664,181	0,68
664,632	0,64
665,084	0,67
665,535	0,65
665,986	0,65
666,437	0,67
666,888	0,63
667,338	0,64
667,789	0,69
668,24	0,67
668,69	0,64
669,14	0,63
669,591	0,64
670,041	0,61
670,491	0,68
670,941	0,61
671,391	0,65
671,84	0,62
672,29	0,67
672,74	0,62
673,189	0,65
673,638	0,63
674,088	0,66
674,537	0,66
674,986	0,61
675,435	0,65
675,883	0,63
676,332	0,65
676,781	0,65
677,229	0,66
677,678	0,64
678,126	0,58
678,574	0,64
679,022	0,63
679,47	0,65
679,918	0,66
680,366	0,6
680,814	0,61
681,261	0,66
681,709	0,64
682,156	0,65
682,604	0,65
683,051	0,65
683,498	0,66
683,945	0,66
684,392	0,65
684,839	0,65
685,286	0,65
685,732	0,64
686,179	0,64
686,625	0,62
687,071	0,66
687,518	0,65
687,964	0,68
688,41	0,68
688,856	0,68
689,301	0,65
689,747	0,64
690,193	0,62
690,638	0,6
691,084	0,63
691,529	0,63
691,974	0,65
692,419	0,63
692,864	0,65
693,309	0,6
693,754	0,66
694,199	0,66
694,643	0,64
695,088	0,67
695,532	0,64
695,977	0,64
696,421	0,65
696,865	0,62
697,309	0,64
697,753	0,62
698,197	0,63
698,64	0,63
699,084	0,64
699,527	0,62
699,971	0,63
700,414	0,62
700,857	0,6
701,3	0,63
701,743	0,62
702,186	0,62
702,629	0,66
703,072	0,63
703,515	0,6
703,957	0,63
704,399	0,64
704,842	0,69
705,284	0,66
705,726	0,67
706,168	0,65
706,61	0,65
707,052	0,66
707,494	0,66
707,935	0,63
708,377	0,61
708,818	0,65
709,26	0,68
709,701	0,67
710,142	0,61
710,583	0,64
711,024	0,64
711,465	0,65
711,905	0,65
712,346	0,62
712,787	0,66
713,227	0,65
713,667	0,64
714,108	0,62
714,548	0,62
714,988	0,61
715,428	0,63
715,868	0,59
716,307	0,61
716,747	0,66
717,186	0,61
717,626	0,65
718,065	0,6
718,504	0,63
718,944	0,63
719,383	0,6
719,822	0,6
720,261	0,6
720,699	0,59
721,138	0,58
721,576	0,63
722,015	0,6
722,453	0,61
722,892	0,6
723,33	0,62
723,768	0,61
724,206	0,6
724,644	0,65
725,081	0,63
725,519	0,61
725,957	0,63
726,394	0,61
726,832	0,64
727,269	0,57
727,706	0,6
728,143	0,62
728,58	0,6
729,017	0,61
729,454	0,62
729,89	0,58
730,327	0,6
730,764	0,58
731,2	0,62
731,636	0,56
732,072	0,58
732,509	0,61
732,945	0,62
733,38	0,59
733,816	0,62
734,252	0,61
734,688	0,6
735,123	0,59
735,559	0,58
735,994	0,61
736,429	0,61
736,864	0,59
737,299	0,62
737,734	0,61
738,169	0,58
738,604	0,59
739,038	0,58
739,473	0,59
739,907	0,61
740,342	0,58
740,776	0,61
741,21	0,59
741,644	0,57
742,078	0,54
742,512	0,59
742,946	0,59
743,379	0,57
743,813	0,61
744,246	0,6
744,68	0,58
745,113	0,54
745,546	0,57
745,979	0,6
746,412	0,59
746,845	0,6
747,278	0,59
747,711	0,55
748,143	0,58
748,576	0,56
749,008	0,55
749,441	0,56
749,873	0,6
750,305	0,59
750,737	0,58
751,169	0,58
751,601	0,58
752,032	0,55
752,464	0,59
752,896	0,53
753,327	0,55
753,758	0,57
754,19	0,59
754,621	0,57
755,052	0,55
755,483	0,57
755,914	0,57
756,344	0,55
756,775	0,52
757,206	0,58
757,636	0,53
758,066	0,56
758,497	0,59
758,927	0,57
759,357	0,62
759,787	0,58
760,217	0,56
760,647	0,58
761,076	0,58
761,506	0,55
761,935	0,54
762,365	0,61
762,794	0,55
763,223	0,57
763,653	0,56
764,082	0,52
764,51	0,55
764,939	0,54
765,368	0,58
765,797	0,57
766,225	0,56
766,654	0,56
767,082	0,58
767,51	0,55
767,938	0,57
768,367	0,6
768,795	0,58
769,222	0,57
769,65	0,59
770,078	0,59
770,505	0,54
770,933	0,57
771,36	0,54
771,788	0,56
772,215	0,57
772,642	0,57
773,069	0,62
773,496	0,6
773,923	0,59
774,349	0,55
774,776	0,58
775,203	0,57
775,629	0,57
776,055	0,55
776,482	0,58
776,908	0,55
777,334	0,58
777,76	0,58
778,186	0,55
778,611	0,58
779,037	0,57
779,463	0,54
779,888	0,57
780,314	0,58
780,739	0,59
781,164	0,59
781,589	0,55
782,014	0,56
782,439	0,58
782,864	0,57
783,289	0,56
783,713	0,59
784,138	0,6
784,562	0,56
784,987	0,59
785,411	0,6
785,835	0,61
786,259	0,59
786,683	0,59
787,107	0,56
787,531	0,58
787,954	0,58
788,378	0,61
788,802	0,59
789,225	0,59
789,648	0,57
790,071	0,58
790,495	0,61
790,918	0,57
791,34	0,56
791,763	0,59
792,186	0,58
792,609	0,57
793,031	0,6
793,454	0,57
793,876	0,59
794,298	0,57
794,721	0,56
795,143	0,58
795,565	0,57
795,986	0,55
796,408	0,55
796,83	0,61
797,252	0,61
797,673	0,58
798,094	0,6
798,516	0,59
798,937	0,61
799,358	0,54
799,779	0,58
800,2	0,61
800,621	0,57
801,042	0,56
801,462	0,59
801,883	0,57
802,303	0,59
802,724	0,57
803,144	0,57
803,564	0,61
803,984	0,56
804,404	0,59
804,824	0,59
805,244	0,56
805,664	0,61
806,084	0,55
806,503	0,57
806,923	0,57
807,342	0,57
807,761	0,55
808,18	0,58
808,599	0,6
809,018	0,6
809,437	0,6
809,856	0,59
810,275	0,59
810,693	0,59
811,112	0,58
811,53	0,59
811,949	0,61
812,367	0,61
812,785	0,62
813,203	0,63
813,621	0,58
814,039	0,58
814,457	0,57
814,874	0,59
815,292	0,55
815,709	0,57
816,127	0,56
816,544	0,55
816,961	0,61
817,378	0,6
817,795	0,55
818,212	0,62
818,629	0,57
819,046	0,59
819,462	0,6
819,879	0,57
820,295	0,59
820,712	0,62
821,128	0,58
821,544	0,56
821,96	0,62
822,376	0,56
822,792	0,54
823,208	0,59
823,624	0,58
824,039	0,56
824,455	0,6
824,87	0,58
825,286	0,57
825,701	0,61
826,116	0,54
826,531	0,6
826,946	0,58
827,361	0,58
827,776	0,62
828,19	0,57
828,605	0,62
829,02	0,55
829,434	0,6
829,848	0,59
830,263	0,63
830,677	0,58
831,091	0,59
831,505	0,61
831,919	0,61
832,332	0,63
832,746	0,58
833,16	0,58
833,573	0,55
833,987	0,57
834,4	0,59
834,813	0,6
835,226	0,55
835,639	0,55
836,052	0,55
836,465	0,57
836,878	0,59
837,29	0,59
837,703	0,59
838,116	0,53
838,528	0,61
838,94	0,59
839,352	0,55
839,765	0,6
840,177	0,58
840,589	0,59
841	0,61
841,412	0,62
841,824	0,6
842,235	0,57
842,647	0,55
843,058	0,58
843,47	0,58
843,881	0,57
844,292	0,61
844,703	0,62
845,114	0,57
845,525	0,57
845,935	0,61
846,346	0,59
846,757	0,56
847,167	0,58
847,577	0,56
847,988	0,58
848,398	0,62
848,808	0,56
849,218	0,64
849,628	0,56
850,038	0,6
850,448	0,6
850,857	0,61
851,267	0,61
851,676	0,63
852,086	0,62
852,495	0,64
852,904	0,59
853,313	0,55
853,722	0,61
854,131	0,59
854,54	0,59
854,949	0,58
855,357	0,55
855,766	0,54
856,174	0,59
856,583	0,57
856,991	0,56
857,399	0,59
857,807	0,58
858,215	0,57
858,623	0,58
859,031	0,59
859,439	0,59
859,846	0,57
860,254	0,54
860,661	0,55
861,069	0,58
861,476	0,56
861,883	0,6
862,29	0,58
862,697	0,58
863,104	0,58
863,511	0,55
863,918	0,59
864,325	0,58
864,731	0,6
865,138	0,54
865,544	0,6
865,95	0,54
866,357	0,56
866,763	0,57
867,169	0,6
867,575	0,54
867,98	0,57
868,386	0,62
868,792	0,6
869,197	0,57
869,603	0,59
870,008	0,56
870,414	0,54
870,819	0,56
871,224	0,54
871,629	0,59
872,034	0,56
872,439	0,57
872,844	0,57
873,248	0,53
873,653	0,61
874,057	0,56
874,462	0,56
874,866	0,62
875,27	0,58
875,674	0,6
876,078	0,59
876,482	0,58
876,886	0,55
877,29	0,56
877,694	0,67
878,097	0,56
878,501	0,61
878,904	0,62
879,308	0,55
879,711	0,58
880,114	0,6
880,517	0,56
880,92	0,57
881,323	0,63
881,726	0,59
882,128	0,57
882,531	0,59
882,934	0,56
883,336	0,59
883,738	0,58
884,141	0,59
884,543	0,59
884,945	0,56
885,347	0,58
885,749	0,53
886,151	0,57
886,552	0,58
886,954	0,65
887,355	0,63
887,757	0,55
888,158	0,59
888,56	0,57
888,961	0,59
889,362	0,62
889,763	0,58
890,164	0,61
890,565	0,56
890,965	0,57
891,366	0,52
891,767	0,56
892,167	0,59
892,567	0,57
892,968	0,59
893,368	0,56
893,768	0,56
894,168	0,61
894,568	0,59
894,968	0,63
895,368	0,55
895,767	0,64
896,167	0,6
896,566	0,58
896,966	0,6
897,365	0,58
897,764	0,59
898,164	0,61
898,563	0,6
898,962	0,57
899,361	0,61
899,759	0,64
900,158	0,58
900,557	0,56
900,955	0,56
901,354	0,58
901,752	0,52
902,15	0,57
902,548	0,55
902,947	0,61
903,345	0,59
903,742	0,56
904,14	0,69
904,538	0,58
904,936	0,63
905,333	0,61
905,731	0,62
906,128	0,57
906,525	0,59
906,923	0,59
907,32	0,58
907,717	0,55
908,114	0,62
908,511	0,58
908,907	0,55
909,304	0,61
909,701	0,57
910,097	0,57
910,494	0,55
910,89	0,54
911,286	0,56
911,682	0,56
912,078	0,59
912,474	0,52
912,87	0,63
913,266	0,61
913,662	0,5
914,058	0,57
914,453	0,58
914,849	0,56
915,244	0,61
915,639	0,68
916,034	0,55
916,43	0,51
916,825	0,66
917,22	0,65
917,614	0,55
918,009	0,57
918,404	0,61
918,798	0,56
919,193	0,57
919,587	0,5
919,982	0,58
920,376	0,55
920,77	0,61
921,164	0,57
921,558	0,56
921,952	0,52
922,346	0,57
922,74	0,61
923,133	0,6
923,527	0,55
923,92	0,56
924,314	0,61
924,707	0,58
925,1	0,63
925,493	0,55
925,886	0,55
926,279	0,57
926,672	0,6
927,065	0,61
927,457	0,55
927,85	0,57
928,243	0,59
928,635	0,55
929,027	0,65
929,42	0,61
929,812	0,65
930,204	0,65
930,596	0,62
930,988	0,64
931,379	0,58
931,771	0,65
932,163	0,62
932,554	0,58
932,946	0,58
933,337	0,57
933,729	0,64
934,12	0,57
934,511	0,64
934,902	0,62
935,293	0,63
935,684	0,6
936,075	0,64
936,465	0,6
936,856	0,64
937,246	0,64
937,637	0,67
938,027	0,55
938,417	0,64
938,808	0,68
939,198	0,68
939,588	0,54
939,978	0,57
940,368	0,6
940,757	0,71
941,147	0,7
941,537	0,67
941,926	0,7
942,315	0,71
942,705	0,87
943,094	0,77
943,483	0,73
943,872	0,71
944,261	0,53
944,65	0,7
945,039	0,52
945,428	0,68
945,816	0,52
946,205	0,72
946,593	0,67
946,982	0,68
947,37	0,65
947,758	0,64
948,146	0,54
948,534	0,8
948,922	0,67
949,31	0,71
949,698	0,87
950,086	0,61
950,473	0,69
950,861	0,8
951,248	0,74
951,636	0,63
952,023	0,61
952,41	0,81
952,797	0,74
953,184	0,73
953,571	0,65
953,958	0,65
954,345	0,63
954,731	0,59
955,118	0,79
955,505	0,71
955,891	0,66
956,277	0,67
956,664	0,65
957,05	0,57
957,436	0,68
957,822	0,82
958,208	0,64
958,594	0,63
958,979	0,65
959,365	0,63
959,751	0,62
960,136	0,66
960,522	0,65
960,907	0,66
961,292	0,64
961,677	0,7
962,062	0,64
962,447	0,67
962,832	0,61
963,217	0,66
963,602	0,69
963,986	0,62
964,371	0,75
964,756	0,66
965,14	0,66
965,524	0,66
965,908	0,63
966,293	0,64
966,677	0,63
967,061	0,62
967,445	0,57
967,828	0,59
968,212	0,65
968,596	0,57
968,979	0,61
969,363	0,59
969,746	0,6
970,129	0,55
970,513	0,62
970,896	0,65
971,279	0,66
971,662	0,58
972,045	0,6
972,428	0,61
972,81	0,61
973,193	0,72
973,575	0,61
973,958	0,66
974,34	0,61
974,723	0,67
975,105	0,55
975,487	0,66
975,869	0,61
976,251	0,73
976,633	0,68
977,015	0,55
977,396	0,58
977,778	0,66
978,16	0,63
978,541	0,64
978,922	0,63
979,304	0,68
979,685	0,66
980,066	0,69
980,447	0,63
980,828	0,68
981,209	0,76
981,59	0,54
981,97	0,62
982,351	0,58
982,732	0,64
983,112	0,54
983,493	0,68
983,873	0,68
984,253	0,63
984,633	0,6
985,013	0,69
985,393	0,64
985,773	0,62
986,153	0,65
986,533	0,58
986,912	0,62
987,292	0,53
987,671	0,64
988,051	0,71
988,43	0,66
988,809	0,56
989,188	0,63
989,567	0,65
989,946	0,58
990,325	0,68
990,704	0,68
991,083	0,72
991,461	0,55
991,84	0,57
992,218	0,63
992,597	0,65
992,975	0,67
993,353	0,65
993,732	0,55
994,11	0,68
994,488	0,63
994,866	0,65
995,243	0,65
995,621	0,73
995,999	0,65
996,376	0,58
996,754	0,61
997,131	0,73
997,509	0,64
997,886	0,67
998,263	0,68
998,64	0,65
999,017	0,63
999,394	0,57
999,771	0,59
1000,148	0,75
1000,524	0,55
1000,901	0,67
1001,277	0,72
1001,654	0,6
1002,03	0,67
1002,406	0,58
1002,783	0,57
1003,159	0,67
1003,535	0,53
1003,911	0,71
1004,286	0,7
1004,662	0,64
1005,038	0,61
1005,414	0,74
1005,789	0,63
1006,164	0,62
1006,54	0,61
1006,915	0,56
1007,29	0,68
1007,665	0,58
1008,04	0,71
1008,415	0,66
1008,79	0,71
1009,165	0,65
1009,54	0,57
1009,914	0,65
1010,289	0,54
1010,663	0,82
1011,038	0,61
1011,412	0,65
1011,786	0,7
1012,16	0,59
1012,535	0,57
1012,909	0,73
1013,282	0,72
1013,656	0,6
1014,03	0,58
1014,404	0,66
1014,777	0,65
1015,151	0,69
1015,524	0,57
1015,897	0,59
1016,271	0,62
1016,644	0,63
1017,017	0,5
1017,39	0,75
1017,763	0,71
1018,136	0,7
1018,508	0,63
1018,881	0,73
1019,254	0,51
1019,626	0,6
1019,999	0,58
1020,371	0,5
1020,743	0,53
1021,116	0,67
1021,488	0,64
1021,86	0,71
1022,232	0,81
1022,604	0,58
1022,975	0,73
1023,347	0,64
1023,719	0,69
1024,09	0,72
1024,462	0,64
1024,833	0,73
1025,204	0,74
1025,576	0,52
1025,947	0,77
1026,318	0,56
1026,689	0,59
1027,06	0,74
1027,431	0,77
1027,801	0,7
1028,172	0,36
1028,543	0,84
1028,913	0,75
1029,284	0,58
1029,654	0,8
1030,024	0,62
1030,394	0,93
1030,764	0,88
1031,135	0,8
1031,504	0,71
1031,874	0,73
1032,244	0,68
1032,614	0,85
1032,983	0,77
1033,353	0,7
1033,722	0,82
1034,092	0,6
1034,461	0,64
1034,83	0,69
1035,2	0,58
1035,569	0,63
1035,938	0,76
1036,307	0,58
1036,675	0,78
1037,044	0,88
1037,413	0,73
1037,781	0,78
1038,15	1,08
1038,518	0,53
1038,887	0,68
1039,255	0,79
1039,623	0,77
1039,991	0,64
1040,359	0,86
1040,727	0,58
1041,095	0,49
1041,463	0,59
1041,831	0,87
1042,198	0,69
1042,566	0,75
1042,933	0,73
1043,301	0,78
1043,668	0,55
1044,035	0,63
1044,402	0,71
1044,77	0,5
1045,137	0,53
1045,503	0,81
1045,87	0,76
1046,237	0,68
1046,604	0,72
1046,97	0,77
1047,337	0,79
1047,703	0,69
1048,07	0,87
1048,436	0,77
1048,802	0,75
1049,168	0,76
1049,534	0,87
1049,9	0,78
1050,266	1,04
1050,632	0,54
1050,998	0,88
1051,364	0,72
1051,729	0,81
1052,095	0,94
1052,46	0,8
1052,825	1
1053,191	0,72
1053,556	0,6
1053,921	0,87
1054,286	0,81
1054,651	0,68
1055,016	0,7
1055,381	0,79
1055,745	0,62
1056,11	0,65
1056,475	0,75
1056,839	0,63
1057,203	1,02
1057,568	0,74
1057,932	0,56
1058,296	0,99
1058,66	0,64
1059,024	0,65
1059,388	1,16
1059,752	0,69
1060,116	0,53
1060,48	1,34
1060,843	1,01
1061,207	1,14
1061,57	1,01
1061,934	0,69
1062,297	0,61
1062,66	0,56
1063,023	0,91
1063,386	1,08
1063,749	0,29
1064,112	0,95
1064,475	0,52
1064,838	0,94
1065,201	0,63
1065,563	1,15
1065,926	1,06
1066,288	0,88
1066,651	1,19
1067,013	0,95
1067,375	0,78
1067,737	1,32
1068,099	0,71
1068,461	1,08
1068,823	0,38
1069,185	0,52
1069,547	1,13
1069,909	0,85
1070,27	0,95
1070,632	1,01
1070,993	0,55
1071,355	0,92
1071,716	1,06
1072,077	0,2
1072,438	1,17
1072,799	0,51
1073,16	0,92
1073,521	1,1
1073,882	0,4
1074,243	0,54
1074,603	0,96
1074,964	0,87
1075,325	1,31
1075,685	0,79
1076,045	0,94
1076,406	0,69
1076,766	1,05
1077,126	1,84
1077,486	0,89
1077,846	1,41
1078,206	1,16
1078,566	0,64
1078,925	0,99
1079,285	1,44
1079,645	1,02
1080,004	0,33
1080,364	0,88
1080,723	0,75
1081,082	1,22
1081,442	0,57
1081,801	1,19
1082,16	1,65
1082,519	0,94
1082,878	1,65
1083,237	1,34
1083,595	0,88
1083,954	1,15
1084,313	0,67
1084,671	1,48
1085,03	0,9
1085,388	1,18
1085,746	0,76
1086,104	1,03
1086,463	1,19
1086,821	0,34
1087,179	1,91
1087,537	1,67
1087,894	1,17
1088,252	1,07
1088,61	0,77
1088,967	0,2
1089,325	1,4
1089,682	1,14
1090,04	1,13
1090,397	1,41
1090,754	1,42
1091,111	1,36
1091,469	1,26
1091,826	1,09
1092,182	1,76
1092,539	1,15
1092,896	0,13
1093,253	1,22
1093,609	0,76
1093,966	1,43
1094,322	1,3
1094,679	0,55
1095,035	2,68
1095,391	0,87
1095,748	1,78
1096,104	1,93
1096,46	1,47
1096,816	1,5
1097,171	1,23
1097,527	0,55
1097,883	1,75
1098,239	1,56
1098,594	-0,83
1098,95	1,68
1099,305	1,01
1099,66	0,85
1100,016	0,72
1100,371	1,2
1100,726	1,9
1101,081	1,69
1101,436	1,48
1101,791	1,73
1102,146	1,86
1102,5	2,18
1102,855	0,94
1103,21	2,09
1103,564	0,54
1103,918	0,61
1104,273	1,13
1104,627	0,25
1104,981	2,53
1105,335	1,33
1105,69	1,34
1106,043	0,77
1106,397	0,59
1106,751	1,8
1107,105	1,77
1107,459	1,95
1107,812	1,38
1108,166	2,17
1108,519	-0,07
1108,873	1,85
1109,226	3,03
1109,579	1,63
1109,932	3,35
1110,285	1,46
1110,638	2,2
1110,991	1,82
1111,344	0,16
1111,697	2,82
1112,05	1,53
1112,402	1,6
1112,755	1,29
1113,107	1,84
1113,46	1,92
1113,812	3,47
1114,164	3,15
1114,517	0,43
1114,869	7,41
1115,221	20,18
1115,573	25
1115,924	19,81
